Particle Type	Particle Size [nm]	Harmonic #	Harmonic Type 0 Amp	AC [mT]	DC Donut Threshold [%]	Initial Donut Radius [mT]	Donut Slope [mT/mT]	
      4.00000	      37.0000	      3.00000	      3.00000	      6.00000	      75.0000	     0.000000	     0.000000	
      4.00000	      37.0000	      3.00000	      3.00000	      10.0000	      75.0000	     0.000000	     0.000000	
      4.00000	      19.0000	      3.00000	      3.00000	      10.0000	      75.0000	     0.000000	     0.000000	
      4.00000	      19.0000	      3.00000	      3.00000	      10.0000	      89.5078	      8.16563	     0.435010	
      4.00000	      20.0000	      3.00000	      3.00000	      10.0000	      89.5078	      7.85156	     0.450235	
      4.00000	      20.0000	      3.00000	     0.000000	      10.0000	      144.469	     0.785156	      1.19408	
      4.00000	      20.0000	      3.00000	     0.000000	      10.0000	      89.5078	      8.16563	     0.435010	
      4.00000	      20.0000	      3.00000	      3.00000	      10.0000	      89.5078	      8.16563	     0.435010	
      4.00000	      20.0000	      3.00000	      3.00000	      10.0000	      89.5078	      8.16563	     0.435010	
      4.00000	      20.0000	      3.00000	      3.00000	      10.0000	      89.5078	      8.16563	     0.435010	
      4.00000	      20.0000	      3.00000	      3.00000	      10.0000	      89.5078	      8.16563	     0.435010	
      4.00000	      20.0000	      3.00000	      3.00000	      10.0000	      89.5078	      8.16563	     0.435010	
      4.00000	      26.0000	      3.00000	      3.00000	      10.0000	      89.5078	      8.16563	     0.435010	
      4.00000	      25.0000	      3.00000	      3.00000	      10.0000	      89.5078	      8.16563	     0.435010	
      4.00000	      30.0000	      3.00000	      3.00000	      10.0000	      89.5078	      8.16563	     0.435010	
      4.00000	      30.0000	      3.00000	      3.00000	      10.0000	      89.5078	      8.16563	     0.435010	
      4.00000	      24.0000	      3.00000	      3.00000	      10.0000	      89.5078	      8.16563	     0.435010	
      4.00000	      25.0000	      3.00000	      3.00000	      10.0000	      89.5078	      8.16563	     0.435010	
      4.00000	      37.0000	      3.00000	      3.00000	      6.00000	      75.0000	     0.000000	     0.000000	
      4.00000	      37.0000	      3.00000	      3.00000	      6.00000	      75.0000	     0.000000	     0.000000	
      4.00000	      37.0000	      3.00000	      3.00000	      10.0000	      75.0000	     0.000000	     0.000000	
      4.00000	      37.0000	      3.00000	      3.00000	      10.0000	      75.0000	     0.000000	     0.000000	
      4.00000	      21.0000	      3.00000	      3.00000	      10.0000	      75.0000	     0.000000	     0.000000	
      4.00000	      20.0000	      3.00000	      3.00000	      10.0000	      75.0000	     0.000000	     0.000000	
      4.00000	      30.0000	      3.00000	      3.00000	      10.0000	      75.0000	     0.000000	     0.000000	
      4.00000	      24.0000	      3.00000	      3.00000	      10.0000	      75.0000	     0.000000	     0.000000	
      4.00000	      25.0000	      3.00000	      3.00000	      10.0000	      75.0000	     0.000000	     0.000000	
      4.00000	      25.0000	      3.00000	      3.00000	      10.0000	      75.0000	     0.000000	     0.000000	
      4.00000	      30.0000	      3.00000	      3.00000	      10.0000	      75.0000	     0.000000	     0.000000	
      4.00000	      21.0000	      3.00000	      3.00000	      10.0000	      75.0000	     0.000000	     0.000000	
      4.00000	      20.0000	      3.00000	      3.00000	      10.0000	      75.0000	     0.000000	     0.000000	
