Particle Type	Particle Size [nm]	Harmonic #	Harmonic Type 0 Amp	AC [mT]	DC Donut Threshold [%]	Initial Donut Radius [mT]	Donut Slope [mT/mT]	
      4.00000	      37.0000	      3.00000	      3.00000	      6.00000	      75.0000	     0.000000	     0.000000	
      4.00000	      37.0000	      3.00000	      3.00000	      6.00000	      89.5078	      2.92078	     0.585278	
      4.00000	      37.0000	      3.00000	      3.00000	      10.0000	      89.5078	      4.55391	     0.558518	
      4.00000	      37.0000	      3.00000	     0.000000	      10.0000	      89.5078	      1.09922	     0.821563	
      4.00000	      37.0000	      3.00000	     0.000000	      10.0000	      89.5078	     0.942188	      1.53659	
      4.00000	      37.0000	      3.00000	     0.000000	      10.0000	      89.5078	      1.25625	      1.58092	
      4.00000	      37.0000	      3.00000	     0.000000	      10.0000	      89.5078	     0.942188	      1.53659	
      4.00000	      37.0000	      3.00000	     0.000000	      10.0000	      89.5078	      1.25625	      1.58092	
      4.00000	      37.0000	      3.00000	     0.000000	      10.0000	      89.5078	      1.25625	      1.58092	
      4.00000	      37.0000	      3.00000	     0.000000	      10.0000	      89.5078	      1.25625	      1.58092	
      4.00000	      30.0000	      3.00000	     0.000000	      10.0000	      89.5078	      1.72734	      1.50986	
      4.00000	      37.0000	      3.00000	      3.00000	      10.0000	      89.5078	      4.55391	     0.558518	
      4.00000	      37.0000	      3.00000	     0.000000	      10.0000	      89.5078	      1.09922	     0.821563	
      4.00000	      37.0000	      3.00000	     0.000000	      10.0000	      89.5078	     0.942188	      1.53659	
      4.00000	      37.0000	      3.00000	     0.000000	      10.0000	      89.5078	      1.25625	      1.58092	
      4.00000	      30.0000	      3.00000	      3.00000	      10.0000	      89.5078	      5.65313	     0.521898	
      4.00000	      30.0000	      3.00000	     0.000000	      10.0000	      89.5078	      1.09922	     0.806372	
      4.00000	      30.0000	      3.00000	     0.000000	      10.0000	      89.5078	      1.09922	     0.806372	
      4.00000	      30.0000	      3.00000	     0.000000	      10.0000	      89.5078	     0.785156	      1.49165	
      4.00000	      30.0000	      3.00000	     0.000000	      10.0000	      89.5078	      1.72734	      1.50986	
      3.00000	      30.0000	      3.00000	     0.000000	      10.0000	      98.9297	      1.57031	      1.29646	
      4.00000	      30.0000	      3.00000	     0.000000	      10.0000	      89.5078	      1.72734	      1.50986	
      4.00000	      30.0000	      3.00000	     0.000000	      10.0000	      89.5078	      1.72734	      1.50986	
      3.00000	      30.0000	      3.00000	     0.000000	      10.0000	      98.9297	      1.57031	      1.29646	
      4.00000	      30.0000	      3.00000	     0.000000	      10.0000	      89.5078	      1.72734	      1.50986	
      3.00000	      30.0000	      3.00000	     0.000000	      10.0000	      98.9297	      1.57031	      1.29646	
      4.00000	      30.0000	      3.00000	     0.000000	      10.0000	      89.5078	      1.72734	      1.50986	
      4.00000	      30.0000	      3.00000	     0.000000	      10.0000	      89.5078	      1.09922	     0.806372	
      4.00000	      30.0000	      3.00000	      3.00000	      10.0000	      89.5078	      5.65313	     0.521898	
      4.00000	      30.0000	      3.00000	      2.00000	      10.0000	      89.5078	      1.57031	     0.773139	
      4.00000	      30.0000	      3.00000	     0.000000	      10.0000	      89.5078	      1.09922	     0.806372	
      4.00000	      30.0000	      3.00000	     0.000000	      10.0000	      89.5078	      1.09922	     0.806372	
      4.00000	      30.0000	      3.00000	     0.000000	      10.0000	      89.5078	      1.09922	     0.806372	
      4.00000	      30.0000	      3.00000	     0.000000	      10.0000	      89.5078	      1.09922	     0.806372	
      4.00000	      30.0000	      3.00000	      2.00000	      10.0000	      89.5078	      1.09922	     0.806372	
      4.00000	      30.0000	      3.00000	     0.000000	      10.0000	      89.5078	      1.09922	     0.806372	
      4.00000	      30.0000	      3.00000	     0.000000	      10.0000	      89.5078	     0.785156	      1.49165	
      4.00000	      30.0000	      3.00000	     0.000000	      10.0000	      89.5078	      1.72734	      1.50986	
      4.00000	      30.0000	      3.00000	     0.000000	      10.0000	      89.5078	      1.72734	      1.50986	
      4.00000	      30.0000	      3.00000	     0.000000	      10.0000	      89.5078	      1.72734	      1.50986	
      4.00000	      30.0000	      3.00000	     0.000000	      10.0000	      89.5078	      1.72734	      1.50986	
      4.00000	      30.0000	      3.00000	     0.000000	      10.0000	      89.5078	      1.72734	      1.50986	
      4.00000	      30.0000	      3.00000	     0.000000	      10.0000	      89.5078	      1.72734	      1.50986	
      4.00000	      30.0000	      3.00000	     0.000000	      10.0000	      89.5078	      1.09922	     0.806372	
      4.00000	      30.0000	      3.00000	     0.000000	      10.0000	      89.5078	      1.72734	      1.50986	
      4.00000	      30.0000	      3.00000	     0.000000	      10.0000	      100.500	     0.471094	     0.855128	
      4.00000	      30.0000	      3.00000	     0.000000	      10.0000	      89.5078	      1.09922	     0.806372	
      4.00000	      30.0000	      3.00000	     0.000000	      10.0000	      95.7891	     0.628125	      1.43327	
      4.00000	      30.0000	      3.00000	     0.000000	      10.0000	      97.3594	     0.314063	      1.37627	
      4.00000	      30.0000	      3.00000	     0.000000	      10.0000	      108.352	      1.25625	      1.61473	
      4.00000	      30.0000	      3.00000	     0.000000	      10.0000	      103.641	     0.314063	      1.62680	
      4.00000	      30.0000	      3.00000	     0.000000	      10.0000	      95.7891	     0.628125	      1.43327	
      4.00000	      30.0000	      3.00000	     0.000000	      10.0000	      95.7891	     0.628125	      1.43327	
      4.00000	      30.0000	      3.00000	     0.000000	      10.0000	      100.500	     0.471094	     0.855128	
      4.00000	      30.0000	      3.00000	     0.000000	      10.0000	      95.7891	     0.628125	      1.43327	
      4.00000	      30.0000	      3.00000	     0.000000	      10.0000	      100.500	     0.471094	     0.855128	
      4.00000	      30.0000	      3.00000	     0.000000	      2.00000	      155.461	    0.0628125	      1.45961	
      4.00000	      30.0000	      3.00000	     0.000000	      5.00000	      108.352	     0.314063	     0.879544	
      4.00000	      30.0000	      3.00000	     0.000000	      15.0000	      98.9297	      3.06211	      1.32531	
      4.00000	      30.0000	      3.00000	     0.000000	      15.0000	      98.9297	     0.706641	     0.852010	
      4.00000	      30.0000	      3.00000	     0.000000	      2.00000	      89.5078	    0.0628125	      1.68233	
      4.00000	      30.0000	      3.00000	     0.000000	      5.00000	      89.5078	      2.11992	      1.42760	
      4.00000	      30.0000	      3.00000	     0.000000	      10.0000	      95.7891	     0.628125	      1.43327	
      4.00000	      30.0000	      3.00000	     0.000000	      10.0000	      100.500	     0.471094	     0.855128	
      4.00000	      30.0000	      3.00000	     0.000000	      15.0000	      98.9297	      3.06211	      1.32531	
      4.00000	      30.0000	      3.00000	      3.00000	      10.0000	      89.5078	      5.02500	     0.556137	
      4.00000	      30.0000	      3.00000	      3.00000	      15.0000	      89.5078	      6.12422	     0.585916	
      4.00000	      30.0000	      3.00000	      3.00000	      2.00000	      89.5078	      1.88437	     0.536083	
      4.00000	      30.0000	      3.00000	     0.000000	      10.0000	      95.7891	     0.628125	      1.43327	
      4.00000	      30.0000	      3.00000	     0.000000	      10.0000	      95.7891	     0.628125	      1.43327	
      4.00000	      30.0000	      3.00000	     0.000000	      10.0000	      75.0000	     0.000000	     0.000000	
      4.00000	      30.0000	      3.00000	     0.000000	      10.0000	      75.0000	     0.000000	     0.000000	
      4.00000	      30.0000	      3.00000	     0.000000	      10.0000	      95.7891	     0.628125	      1.43327	
      4.00000	      30.0000	      3.00000	     0.000000	      3.00000	      89.5078	      1.17773	      1.49933	
      4.00000	      30.0000	      3.00000	     0.000000	      8.00000	      95.7891	     0.502500	      1.39736	
      4.00000	      30.0000	      3.00000	     0.000000	      21.0000	      98.9297	      1.31906	      1.33256	
      4.00000	      30.0000	      3.00000	     0.000000	      34.0000	      100.500	      9.07641	      1.23565	
      4.00000	      30.0000	      3.00000	     0.000000	      34.0000	      100.500	      9.07641	      1.23565	
      4.00000	      30.0000	      3.00000	     0.000000	      34.0000	      100.500	      9.07641	      1.23565	
      4.00000	      30.0000	      3.00000	     0.000000	      34.0000	      100.500	      9.07641	      1.23565	
      4.00000	      30.0000	      3.00000	     0.000000	      34.0000	      100.500	      9.07641	      1.23565	
      4.00000	      30.0000	      3.00000	     0.000000	      34.0000	      100.500	      9.07641	      1.23565	
      4.00000	      30.0000	      3.00000	     0.000000	      34.0000	      100.500	      9.07641	      1.23565	
      4.00000	      30.0000	      3.00000	     0.000000	      34.0000	      100.500	      9.07641	      1.23565	
      4.00000	      30.0000	      3.00000	     0.000000	      34.0000	      100.500	      9.07641	      1.23565	
      4.00000	      30.0000	      3.00000	     0.000000	      34.0000	      100.500	      9.07641	      1.23565	
      4.00000	      30.0000	      3.00000	     0.000000	      34.0000	      100.500	      9.07641	      1.23565	
      4.00000	      30.0000	      3.00000	     0.000000	      34.0000	      89.5078	      2.13562	      1.65560	
      4.00000	      30.0000	      3.00000	     0.000000	      34.0000	      89.5078	      1.60172	      1.66009	
      4.00000	      30.0000	      3.00000	     0.000000	      34.0000	      100.500	      9.07641	      1.23565	
      4.00000	      30.0000	      3.00000	     0.000000	      10.0000	      97.3594	     0.942188	      1.36952	
      4.00000	      30.0000	      3.00000	     0.000000	      3.00000	      89.5078	     0.518203	      1.57978	
      4.00000	      30.0000	      3.00000	     0.000000	      21.0000	      98.9297	     0.989297	      1.33396	
      3.00000	      30.0000	      3.00000	     0.000000	      21.0000	      98.9297	     0.659531	      1.33536	
      3.00000	      30.0000	      3.00000	     0.000000	      6.00000	      100.500	      4.80516	      1.26273	
      3.00000	      30.0000	      3.00000	     0.000000	      1.00000	      153.891	     0.204141	      3.25584	
      3.00000	      30.0000	      3.00000	     0.000000	      6.00000	      100.500	      4.80516	      1.26273	
      4.00000	      30.0000	      3.00000	     0.000000	      6.00000	      98.9297	      4.52250	      1.28208	
      4.00000	      30.0000	      3.00000	     0.000000	      15.0000	      98.9297	      3.06211	      1.32531	
      4.00000	      30.0000	      3.00000	     0.000000	      10.0000	      103.641	     0.314063	      2.04241	
      4.00000	      30.0000	      3.00000	     0.000000	      10.0000	      103.641	     0.314063	      2.04241	
      4.00000	      30.0000	      3.00000	     0.000000	      10.0000	      103.641	     0.314063	      1.62680	
      4.00000	      30.0000	      3.00000	     0.000000	      10.0000	      103.641	     0.314063	      1.62680	
      4.00000	      30.0000	      3.00000	     0.000000	      10.0000	      103.641	     0.314063	      2.04241	
      4.00000	      30.0000	      3.00000	     0.000000	      24.0000	      103.641	      2.26125	      2.03792	
      4.00000	      30.0000	      3.00000	     0.000000	      24.0000	      103.641	      1.88437	      1.62262	
      4.00000	      30.0000	      3.00000	     0.000000	      24.0000	      89.5078	      1.50750	      1.63545	
      4.00000	      30.0000	      3.00000	     0.000000	      24.0000	      89.5078	      1.50750	      2.00211	
      3.00000	      30.0000	      3.00000	     0.000000	      24.0000	      103.641	      2.26125	      2.03327	
      3.00000	      30.0000	      3.00000	     0.000000	      24.0000	      103.641	      1.88437	      1.65939	
      4.00000	      30.0000	      3.00000	     0.000000	      24.0000	      89.5078	      1.50750	      1.63545	
      4.00000	      30.0000	      3.00000	     0.000000	      24.0000	      89.5078	      1.50750	      2.00211	
